## ORBS phase file
# Author: Thomas Martin <thomas.martin.1@ulaval.ca>
# Filter name : SN1
# Wavenumber in cm-1 | Phase in radians

25842.5272951 0.760509187243
25873.1464033 0.688548899432
25903.7655115 0.618291481452
25934.3846196 0.549789487269
25965.0037278 0.483095470851
25995.622836 0.418261986164
26026.2419441 0.355341587174
26056.8610523 0.294386827848
26087.4801605 0.235450262152
26118.0992687 0.178584444053
26148.7183768 0.123841927518
26179.337485 0.0712752665126
26209.9565932 0.0209370150038
26240.5757013 -0.027120273042
26271.1948095 -0.0728440436582
26301.8139177 -0.116181742878
26332.4330258 -0.157080816736
26363.052134 -0.195488711264
26393.6712422 -0.231352872496
26424.2903503 -0.264620746467
26454.9094585 -0.295239779208
26485.5285667 -0.323157416754
26516.1476749 -0.348321105139
26546.766783 -0.370678290395
26577.3858912 -0.390176418556
26608.0049994 -0.406762935656
26638.6241075 -0.420385287727
26669.2432157 -0.430990920804
26699.8623239 -0.438527280921
26730.481432 -0.442941814109
26761.1005402 -0.444181966404
26791.7196484 -0.442195183838
26822.3387566 -0.436928912445
26852.9578647 -0.428330598258
26883.5769729 -0.416347687311
26914.1960811 -0.400927625637
26944.8151892 -0.38201785927
26975.4342974 -0.359565834243
27006.0534056 -0.333518996589
27036.6725137 -0.303824792343
27067.2916219 -0.270430667538
27097.9107301 -0.233284068206
27128.5298382 -0.192332440382
27159.1489464 -0.147523230099
27189.7680546 -0.0988038833909
27220.3871628 -0.0461218462903
27251.0062709 0.0105754351688
27281.6253791 0.071340514953
27312.2444873 0.136225947029
27342.8635954 0.205284285363
27373.4827036 0.278568083922
27404.1018118 0.356129896672
27434.7209199 0.43802227758
27465.3400281 0.524297780612
27495.9591363 0.615008959735
27526.5782445 0.710208368915
27557.1973526 0.809948562119
